Composition,
Database of Origin,Unknown
Date Added,2021-03-20 18:08:50.266638
Formula,
Grain Size,
Locality,
Material Class,
Maximum Reflectance,2976.0
Minimum Reflectance,242.1
Other Information,
References,
Resolution,
Sample Description,
Sample ID,Oxide_Magnetite_hs195.13178_USGS
Sample Name,Oxide_Magnetite_hs195.13178_USGS
Sample Type,
Viewing Geometry,
Wavelength,Response
242.1,0.052183
248.1,0.053225
253.6,0.05121
258.6,0.052689
263.6,0.055728
268.6,0.056925
273.1,0.058461
277.1,0.057303
281.1,0.058441
285.1,0.056516
289.1,0.057553
293.1,0.05823
297.1,0.056956
301.1,0.055914
305.1,0.06034
309.1,0.056816
313.1,0.059071
317.1,0.058899
321.1,0.059831
325.1,0.059168
329.1,0.061599
333.1,0.060106
337.1,0.057377
341.1,0.059934
345.1,0.060848
349.1,0.059582
353.1,0.061668
357.1,0.061655
360.6,0.061755
363.6,0.061878
366.6,0.060654
369.6,0.06149
372.6,0.061016
375.6,0.060906
378.6,0.061047
381.1,0.062035
383.1,0.061548
385.1,0.062131
387.1,0.060974
389.1,0.061021
391.1,0.061359
393.1,0.0609
395.1,0.061729
397.1,0.060996
399.1,0.061215
401.1,0.061086
403.1,0.060432
405.1,0.060181
407.1,0.06093
409.1,0.060133
411.1,0.060284
412.8,0.060266
415.8,0.060995
418.8,0.059822
421.8,0.06042
424.8,0.05925
427.8,0.059429
430.8,0.059268
433.8,0.059208
436.8,0.059564
439.8,0.059048
442.8,0.059041
445.8,0.058424
448.8,0.058403
451.3,0.058936
453.3,0.059318
455.3,0.057998
457.3,0.057695
459.3,0.057375
461.3,0.058581
463.3,0.058003
465.3,0.057875
467.3,0.057233
469.3,0.057909
471.3,0.058118
473.3,0.058005
475.3,0.057443
477.3,0.05828
479.3,0.057712
481.3,0.05808
483.3,0.057769
485.3,0.05783
487.3,0.0582
489.3,0.05829
491.3,0.05801
493.3,0.057663
495.3,0.057514
497.3,0.057746
499.3,0.057781
501.3,0.058037
503.3,0.057377
505.3,0.058032
507.3,0.05668
509.3,0.058215
511.3,0.057557
513.3,0.058459
515.3,0.057488
517.3,0.058182
519.3,0.057105
521.3,0.057661
523.3,0.057529
525.3,0.058285
527.3,0.057074
529.3,0.05756
531.3,0.056848
533.3,0.057409
535.3,0.057536
537.3,0.057994
539.3,0.05726
541.3,0.057013
543.3,0.056819
545.3,0.058448
547.3,0.057657
549.3,0.05763
551.3,0.057475
553.3,0.057519
555.3,0.05735
557.3,0.056918
559.3,0.058289
561.3,0.057427
563.3,0.057483
565.3,0.058579
567.3,0.058513
569.3,0.058026
571.3,0.057558
573.3,0.057678
575.3,0.057543
577.3,0.058397
579.3,0.058154
581.3,0.058478
583.3,0.05816
585.3,0.058492
587.3,0.057985
589.3,0.059362
591.3,0.058417
593.3,0.059246
595.3,0.058116
597.3,0.058318
599.3,0.05927
601.1,0.058312
602.7,0.059292
604.3,0.058444
605.9,0.058524
607.5,0.058029
609.1,0.057712
610.7,0.057527
612.3,0.05787
613.9,0.058553
615.5,0.057804
617.1,0.058598
618.7,0.058228
620.3,0.057834
621.9,0.058024
623.5,0.058012
625.1,0.058416
626.7,0.057938
628.3,0.057979
629.9,0.058275
631.7,0.058067
633.7,0.058166
635.7,0.057709
637.7,0.058064
639.7,0.05796
641.7,0.058776
643.7,0.057868
645.7,0.057674
647.7,0.058093
649.7,0.057134
651.7,0.058532
653.7,0.058653
655.7,0.058202
657.7,0.058167
659.7,0.058021
661.7,0.058495
663.7,0.058481
665.7,0.058582
667.7,0.057485
670.2,0.058099
673.2,0.058318
676.2,0.057575
679.2,0.057804
682.2,0.05817
685.2,0.058145
688.2,0.058091
691.2,0.0575
694.2,0.058312
697.2,0.057476
700.2,0.058239
702.0,0.056485
704.0,0.058322
706.0,0.057464
708.0,0.057472
710.0,0.057456
712.0,0.05685
714.0,0.057451
716.0,0.057102
718.0,0.057075
720.0,0.057324
722.0,0.056928
724.0,0.057094
726.0,0.056827
728.0,0.05659
730.0,0.057208
732.0,0.056152
734.0,0.056763
736.0,0.056128
738.0,0.056246
740.0,0.056352
742.0,0.056031
744.0,0.056692
746.0,0.055903
748.0,0.055763
750.5,0.055772
753.5,0.055965
756.5,0.055191
759.5,0.055316
762.5,0.055013
765.5,0.054973
768.5,0.055186
771.5,0.055238
774.5,0.05431
777.5,0.055031
781.0,0.054229
785.0,0.05448
789.0,0.054632
793.0,0.054009
797.0,0.053905
801.5,0.053528
806.5,0.054142
811.5,0.053065
816.5,0.052947
822.0,0.052773
828.0,0.051693
835.0,0.052016
843.0,0.051077
851.0,0.052089
859.0,0.053034
871.0,0.049726
883.0,0.051148
894.0,0.050472
904.0,0.049617
914.0,0.047131
924.0,0.048667
933.0,0.047961
941.0,0.047137
949.0,0.046405
957.0,0.046483
964.0,0.045169
970.0,0.047171
976.0,0.045931
982.0,0.045703
988.0,0.045221
994.0,0.045337
1000.0,0.04462
1006.0,0.046236
1012.0,0.044857
1018.0,0.04337
1023.5,0.044355
1028.5,0.043095
1033.5,0.046038
1038.5,0.044603
1043.5,0.044788
1048.5,0.043282
1053.5,0.04292
1058.5,0.044803
1063.5,0.042224
1068.5,0.045159
1073.5,0.044311
1078.5,0.043477
1083.5,0.044572
1088.5,0.044553
1093.5,0.044629
1098.5,0.04374
1103.5,0.043731
1108.5,0.04478
1113.5,0.043772
1118.5,0.045641
1123.5,0.045735
1128.5,0.044742
1133.5,0.045116
1138.5,0.045627
1143.5,0.044688
1148.5,0.045621
1153.5,0.04516
1158.5,0.045372
1163.5,0.045095
1168.5,0.046327
1173.5,0.047189
1178.5,0.045246
1183.5,0.04737
1188.5,0.046565
1193.5,0.047023
1198.5,0.047599
1203.5,0.047819
1208.5,0.047516
1213.5,0.047142
1218.5,0.046613
1223.5,0.048232
1228.5,0.047392
1233.5,0.048515
1238.5,0.048448
1243.5,0.04857
1248.5,0.048164
1253.5,0.047885
1258.5,0.047734
1263.5,0.050651
1268.5,0.048556
1273.5,0.047667
1278.5,0.049609
1283.5,0.05092
1288.5,0.050849
1293.5,0.050646
1298.5,0.050286
1303.5,0.050895
1308.5,0.05059
1313.5,0.051206
1318.5,0.051494
1323.5,0.051774
1328.5,0.052305
1333.5,0.052901
1338.5,0.052771
1343.5,0.053026
1348.5,0.053763
1353.5,0.052864
1358.5,0.052956
1363.5,0.053526
1368.5,0.055814
1373.5,0.053279
1378.5,0.054773
1383.5,0.055413
1388.5,0.055516
1393.5,0.055297
1398.5,0.053878
1403.5,0.054913
1408.5,0.056103
1413.5,0.054941
1418.5,0.057286
1423.5,0.056622
1428.5,0.05727
1433.5,0.058072
1438.5,0.057741
1443.5,0.058136
1448.5,0.056208
1453.5,0.05658
1458.5,0.056991
1463.5,0.057128
1468.5,0.058572
1473.5,0.059573
1478.5,0.058331
1483.5,0.060644
1488.5,0.061503
1493.5,0.06103
1498.5,0.059074
1503.5,0.059151
1508.5,0.061099
1513.5,0.059946
1518.5,0.061657
1523.5,0.060103
1528.5,0.060062
1534.0,0.060877
1540.0,0.062002
1546.0,0.06286
1552.0,0.06204
1558.0,0.062849
1564.0,0.063537
1570.5,0.062841
1577.5,0.064271
1584.5,0.06237
1591.5,0.063817
1598.5,0.065249
1605.5,0.064386
1612.5,0.064242
1619.5,0.063707
1626.5,0.065635
1633.5,0.065795
1640.5,0.066421
1647.5,0.066626
1654.5,0.067032
1661.5,0.067644
1668.5,0.067818
1676.0,0.067833
1684.0,0.068283
1692.0,0.067748
1700.0,0.069751
1708.0,0.069069
1716.0,0.069024
1724.0,0.069599
1732.0,0.069498
1740.0,0.07052
1748.0,0.074902
1756.0,0.07017
1764.0,0.069657
1772.0,0.071834
1780.0,0.071588
1788.0,0.073103
1796.0,0.071545
1805.0,0.073004
1815.0,0.072611
1825.0,0.072382
1835.0,0.07368
1845.0,0.073773
1855.0,0.074635
1865.0,0.073059
1875.0,0.077882
1885.0,0.0742
1895.0,0.0742
1905.0,0.075442
1915.0,0.072348
1925.0,0.074161
1935.0,0.074478
1945.0,0.075349
1955.0,0.074625
1965.0,0.077489
1975.0,0.077445
1985.0,0.076777
1995.0,0.079244
2005.0,0.07908
2015.0,0.077628
2025.0,0.07754
2035.0,0.07826
2045.0,0.078601
2055.0,0.081265
2065.0,0.081061
2075.0,0.080604
2085.0,0.076881
2095.0,0.08193
2105.0,0.079237
2115.0,0.084707
2125.0,0.079383
2135.0,0.082056
2145.0,0.081144
2155.0,0.08028
2165.0,0.081273
2175.0,0.08258
2185.0,0.08168
2195.0,0.082716
2205.0,0.083452
2215.0,0.081944
2225.0,0.082661
2235.0,0.083618
2245.0,0.085827
2255.0,0.081691
2265.0,0.081609
2275.0,0.081681
2285.0,0.082661
2295.0,0.084686
2305.0,0.081102
2315.0,0.087376
2325.0,0.08469
2335.0,0.087109
2345.0,0.08493
2355.0,0.081907
2365.0,0.085107
2375.0,0.085838
2386.0,0.0876
2400.0,0.08444
2418.0,0.085698
2440.0,0.086793
2466.0,0.084131
2496.0,0.087482
2528.0,0.08649
2560.0,0.086371
2592.0,0.089659
2624.0,0.088339
2656.0,0.087045
2688.0,0.092456
2720.0,0.095871
2752.0,0.081157
2784.0,0.088247
2816.0,0.088886
2848.0,0.091101
2880.0,0.089673
2912.0,0.102783
2944.0,0.090202
2976.0,0.080597
